# File: Integrate59.not
# NOTEA     = SDRPlay+Rectangular Horn Pi #2
# NOTEB     = Spectral Integration AIRSPY Test
# OBSERVER  = Science Aficionado
# DEVICE    = SDRPlay RSP1A
# DATADIR   = ../data/
# SITE      = SDRPlay+Rectangular Horn Pi #2
# CITY      = Green Bank
# REGION    = West Virginia
# COUNTRY   = US
# TELTYPE   = Bubble Wrap  Horn
# FRAME     = TOPO
# GAIN1     = 0.0
# GAIN2     = 12.0
# GAIN3     = 12.0
# GAIN4     = 0.0
# Count     = 1024
# CenterFreq= 1420000000.0
# Bandwidth = 9000000.0
# Duration  = 23.244792
# DeltaX    = 5859.375
# BUNIT     = Counts
# NCHAN     = 2048
# NSPEC     = 1
# NTIME     = 0
# NSAMPLES  = 0
# EPEAK     = 4.10875183718
# ERMS      = 0.995973393526
# EMJD      = 58568.808999981004 
# REFCHAN   = 1024.0
# REFSAMPL  = 256.0
# NAVE      = 500
# NMEDIAN   = 1024
# Fft_rate  = 5000
# UTC       = 2020-01-13 12:08:40.112603
# SECONDS   =       0.0000000000 
# LST       = 14:19:05.210
# AZ        = 180.0
# EL        = 80.0
# TELLON    = -79:50:22.920
# TELLAT    = +38:25:59.160
# RA        = 14:17:19.760
# DEC       = +28:36:56.500
# GALLON    = 42:25:33.90
# GALLAT    = +70:59:07.30
# ALT_SUN   = -05:25:28.5
# AZ_SUN    = +113:03:33.5
# ETAA      = 0.8
# ETAB      = 0.99
# POLANGLE  = 0.0
# TELSIZEAM = 1.0
# TELSIZEBM = 1.0
# AST_VERS  = 05.01
0000 1415502197 0.0300
0001 1415506591 0.0296
0002 1415510986 0.0296
0003 1415515380 0.0300
0004 1415519775 0.0297
0005 1415524169 0.0297
0006 1415528564 0.0300
0007 1415532958 0.0295
0008 1415537353 0.0294
0009 1415541748 0.0295
0010 1415546142 0.0295
0011 1415550537 0.0298
0012 1415554931 0.0303
0013 1415559326 0.0302
0014 1415563720 0.0297
0015 1415568115 0.0296
0016 1415572509 0.0295
0017 1415576904 0.0292
0018 1415581298 0.0294
0019 1415585693 0.0297
0020 1415590087 0.0294
0021 1415594482 0.0295
0022 1415598876 0.0295
0023 1415603271 0.0291
0024 1415607666 0.0290
0025 1415612060 0.0286
0026 1415616455 0.0284
0027 1415620849 0.0281
0028 1415625244 0.0276
0029 1415629638 0.0274
0030 1415634033 0.0270
0031 1415638427 0.0260
0032 1415642822 0.0255
0033 1415647216 0.0250
0034 1415651611 0.0243
0035 1415656005 0.0232
0036 1415660400 0.0225
0037 1415664794 0.0217
0038 1415669189 0.0205
0039 1415673583 0.0196
0040 1415677978 0.0181
0041 1415682373 0.0171
0042 1415686767 0.0157
0043 1415691162 0.0145
0044 1415695556 0.0130
0045 1415699951 0.0119
0046 1415704345 0.0106
0047 1415708740 0.0092
0048 1415713134 0.0081
0049 1415717529 0.0071
0050 1415721923 0.0061
0051 1415726318 0.0055
0052 1415730712 0.0051
0053 1415735107 0.0049
0054 1415739501 0.0052
0055 1415743896 0.0060
0056 1415748291 0.0073
0057 1415752685 0.0091
0058 1415757080 0.0118
0059 1415761474 0.0158
0060 1415765869 0.0204
0061 1415770263 0.0259
0062 1415774658 0.0333
0063 1415779052 0.0420
0064 1415783447 0.0516
0065 1415787841 0.0639
0066 1415792236 0.0792
0067 1415796630 0.0953
0068 1415801025 0.1135
0069 1415805419 0.1352
0070 1415809814 0.1616
0071 1415814208 0.1900
0072 1415818603 0.2225
0073 1415822998 0.2645
0074 1415827392 0.3077
0075 1415831787 0.3448
0076 1415836181 0.3956
0077 1415840576 0.4584
0078 1415844970 0.5214
0079 1415849365 0.5915
0080 1415853759 0.6616
0081 1415858154 0.7464
0082 1415862548 0.8377
0083 1415866943 0.9393
0084 1415871337 1.0502
0085 1415875732 1.1613
0086 1415880126 1.3053
0087 1415884521 1.4869
0088 1415888916 1.6095
0089 1415893310 1.7769
0090 1415897705 1.9459
0091 1415902099 2.1591
0092 1415906494 2.4108
0093 1415910888 2.6601
0094 1415915283 3.0777
0095 1415919677 3.3696
0096 1415924072 3.4974
0097 1415928466 3.8199
0098 1415932861 4.2059
0099 1415937255 4.5690
0100 1415941650 4.9799
0101 1415946044 5.4625
0102 1415950439 5.9169
0103 1415954833 6.4419
0104 1415959228 6.8929
0105 1415963623 7.5230
0106 1415968017 8.0465
0107 1415972412 8.7471
0108 1415976806 9.5835
0109 1415981201 11.5917
0110 1415985595 31.2106
0111 1415989990 20.8104
0112 1415994384 13.8280
0113 1415998779 17.4759
0114 1416003173 25.0306
0115 1416007568 16.4565
0116 1416011962 16.9037
0117 1416016357 17.3657
0118 1416020751 18.2648
0119 1416025146 19.5171
0120 1416029541 20.4578
0121 1416033935 21.5514
0122 1416038330 22.7307
0123 1416042724 23.8269
0124 1416047119 25.1539
0125 1416051513 26.6218
0126 1416055908 28.7284
0127 1416060302 29.7766
0128 1416064697 30.9551
0129 1416069091 32.9014
0130 1416073486 34.6724
0131 1416077880 36.5266
0132 1416082275 39.5041
0133 1416086669 41.9803
0134 1416091064 44.0117
0135 1416095458 46.5391
0136 1416099853 49.4358
0137 1416104248 50.5071
0138 1416108642 53.4824
0139 1416113037 57.0631
0140 1416117431 60.8684
0141 1416121826 64.4446
0142 1416126220 68.1318
0143 1416130615 71.5695
0144 1416135009 75.4300
0145 1416139404 78.7848
0146 1416143798 83.0655
0147 1416148193 86.2699
0148 1416152587 90.8522
0149 1416156982 95.3437
0150 1416161376 101.4722
0151 1416165771 104.6153
0152 1416170166 106.5300
0153 1416174560 110.4865
0154 1416178955 114.3576
0155 1416183349 117.5422
0156 1416187744 117.6513
0157 1416192138 120.4124
0158 1416196533 120.8830
0159 1416200927 123.8309
0160 1416205322 126.5333
0161 1416209716 126.5985
0162 1416214111 126.6159
0163 1416218505 129.6836
0164 1416222900 132.5813
0165 1416227294 131.6272
0166 1416231689 131.8957
0167 1416236083 133.3744
0168 1416240478 135.2760
0169 1416244873 135.5750
0170 1416249267 135.9649
0171 1416253662 138.1707
0172 1416258056 138.6555
0173 1416262451 140.2472
0174 1416266845 153.3368
0175 1416271240 148.7151
0176 1416275634 143.3129
0177 1416280029 144.6168
0178 1416284423 144.0397
0179 1416288818 144.4683
0180 1416293212 143.9511
0181 1416297607 147.5013
0182 1416302001 146.8834
0183 1416306396 149.2354
0184 1416310791 151.1314
0185 1416315185 150.7549
0186 1416319580 153.1297
0187 1416323974 154.9371
0188 1416328369 155.9914
0189 1416332763 158.1608
0190 1416337158 157.9000
0191 1416341552 159.7962
0192 1416345947 163.7059
0193 1416350341 163.4537
0194 1416354736 166.1293
0195 1416359130 163.6001
0196 1416363525 164.0767
0197 1416367919 164.7032
0198 1416372314 166.8681
0199 1416376708 163.0317
0200 1416381103 165.1768
0201 1416385498 164.3693
0202 1416389892 167.5731
0203 1416394287 166.7284
0204 1416398681 167.7518
0205 1416403076 170.5962
0206 1416407470 172.6561
0207 1416411865 171.3598
0208 1416416259 171.9615
0209 1416420654 173.7187
0210 1416425048 175.2141
0211 1416429443 174.2893
0212 1416433837 179.7115
0213 1416438232 177.6073
0214 1416442626 177.8644
0215 1416447021 177.5699
0216 1416451416 183.5279
0217 1416455810 186.8000
0218 1416460205 183.1902
0219 1416464599 188.0467
0220 1416468994 186.6296
0221 1416473388 187.2474
0222 1416477783 189.0057
0223 1416482177 192.0740
0224 1416486572 194.2437
0225 1416490966 192.8988
0226 1416495361 201.6247
0227 1416499755 196.0509
0228 1416504150 192.8628
0229 1416508544 195.0436
0230 1416512939 197.6990
0231 1416517333 195.7178
0232 1416521728 197.4585
0233 1416526123 197.0317
0234 1416530517 196.2150
0235 1416534912 192.7509
0236 1416539306 191.5453
0237 1416543701 189.7265
0238 1416548095 188.3595
0239 1416552490 187.1660
0240 1416556884 186.6228
0241 1416561279 183.7715
0242 1416565673 183.2378
0243 1416570068 182.8402
0244 1416574462 178.9018
0245 1416578857 176.6950
0246 1416583251 176.5305
0247 1416587646 178.6088
0248 1416592041 173.4437
0249 1416596435 169.5103
0250 1416600830 167.3250
0251 1416605224 169.2208
0252 1416609619 167.8814
0253 1416614013 166.5389
0254 1416618408 167.5051
0255 1416622802 166.1738
0256 1416627197 162.9474
0257 1416631591 164.8083
0258 1416635986 164.0331
0259 1416640380 167.9585
0260 1416644775 165.1309
0261 1416649169 172.0702
0262 1416653564 165.9637
0263 1416657958 161.4476
0264 1416662353 159.9134
0265 1416666748 162.7976
0266 1416671142 161.2506
0267 1416675537 164.3397
0268 1416679931 168.9657
0269 1416684326 162.0453
0270 1416688720 162.1266
0271 1416693115 164.1192
0272 1416697509 163.5495
0273 1416701904 161.1873
0274 1416706298 163.1800
0275 1416710693 171.4365
0276 1416715087 162.6380
0277 1416719482 162.2152
0278 1416723876 164.3120
0279 1416728271 162.9654
0280 1416732666 161.5276
0281 1416737060 162.5791
0282 1416741455 163.0337
0283 1416745849 162.5193
0284 1416750244 163.9681
0285 1416754638 162.1423
0286 1416759033 187.6081
0287 1416763427 199.3138
0288 1416767822 164.3994
0289 1416772216 169.3610
0290 1416776611 165.4370
0291 1416781005 163.0113
0292 1416785400 169.0018
0293 1416789794 164.3958
0294 1416794189 163.1913
0295 1416798583 162.9634
0296 1416802978 164.2069
0297 1416807373 165.9445
0298 1416811767 169.3307
0299 1416816162 167.7733
0300 1416820556 165.2757
0301 1416824951 165.9453
0302 1416829345 167.3341
0303 1416833740 170.2260
0304 1416838134 166.5904
0305 1416842529 164.7969
0306 1416846923 167.7951
0307 1416851318 169.4088
0308 1416855712 170.6740
0309 1416860107 178.3797
0310 1416864501 171.4051
0311 1416868896 167.7951
0312 1416873291 171.2305
0313 1416877685 170.5753
0314 1416882080 172.4829
0315 1416886474 170.2593
0316 1416890869 173.3320
0317 1416895263 175.2752
0318 1416899658 170.1008
0319 1416904052 170.1651
0320 1416908447 172.1548
0321 1416912841 172.7355
0322 1416917236 169.5839
0323 1416921630 170.1829
0324 1416926025 170.3863
0325 1416930419 171.7115
0326 1416934814 168.8916
0327 1416939208 170.9479
0328 1416943603 168.3648
0329 1416947998 168.7161
0330 1416952392 169.6547
0331 1416956787 168.3217
0332 1416961181 167.2469
0333 1416965576 169.2846
0334 1416969970 169.9491
0335 1416974365 168.6690
0336 1416978759 169.8351
0337 1416983154 173.1311
0338 1416987548 169.8475
0339 1416991943 168.8057
0340 1416996337 168.9411
0341 1417000732 171.0198
0342 1417005126 169.5287
0343 1417009521 167.3342
0344 1417013916 170.2674
0345 1417018310 171.9388
0346 1417022705 170.5261
0347 1417027099 171.7600
0348 1417031494 170.8416
0349 1417035888 170.8289
0350 1417040283 172.2166
0351 1417044677 170.0664
0352 1417049072 171.1256
0353 1417053466 167.9393
0354 1417057861 169.5745
0355 1417062255 174.0764
0356 1417066650 172.8911
0357 1417071044 173.1542
0358 1417075439 174.9173
0359 1417079833 171.1500
0360 1417084228 168.9586
0361 1417088623 168.5080
0362 1417093017 171.9196
0363 1417097412 171.8760
0364 1417101806 172.0381
0365 1417106201 172.1116
0366 1417110595 172.1166
0367 1417114990 175.8952
0368 1417119384 172.4764
0369 1417123779 173.4828
0370 1417128173 172.2056
0371 1417132568 174.5167
0372 1417136962 180.6273
0373 1417141357 175.0564
0374 1417145751 177.6647
0375 1417150146 173.6580
0376 1417154541 175.4796
0377 1417158935 172.8310
0378 1417163330 175.6088
0379 1417167724 183.7959
0380 1417172119 177.1253
0381 1417176513 175.3392
0382 1417180908 175.8216
0383 1417185302 176.4135
0384 1417189697 172.7682
0385 1417194091 175.2780
0386 1417198486 186.4266
0387 1417202880 206.1413
0388 1417207275 178.4215
0389 1417211669 176.3360
0390 1417216064 177.8440
0391 1417220458 175.3474
0392 1417224853 175.8205
0393 1417229248 175.9680
0394 1417233642 175.4157
0395 1417238037 175.4673
0396 1417242431 175.7530
0397 1417246826 176.9192
0398 1417251220 174.4457
0399 1417255615 175.9726
0400 1417260009 180.2057
0401 1417264404 176.5328
0402 1417268798 179.1996
0403 1417273193 178.2577
0404 1417277587 179.4873
0405 1417281982 176.0633
0406 1417286376 177.7273
0407 1417290771 179.4044
0408 1417295166 176.0416
0409 1417299560 176.3960
0410 1417303955 177.5399
0411 1417308349 175.1989
0412 1417312744 177.1391
0413 1417317138 179.9189
0414 1417321533 183.5407
0415 1417325927 180.6511
0416 1417330322 178.7486
0417 1417334716 178.8025
0418 1417339111 178.6313
0419 1417343505 180.8225
0420 1417347900 177.6486
0421 1417352294 179.3777
0422 1417356689 178.0680
0423 1417361083 186.9735
0424 1417365478 182.1081
0425 1417369873 180.0515
0426 1417374267 177.8228
0427 1417378662 182.0506
0428 1417383056 182.2289
0429 1417387451 177.1618
0430 1417391845 177.4522
0431 1417396240 182.0718
0432 1417400634 179.7546
0433 1417405029 176.0429
0434 1417409423 180.7584
0435 1417413818 183.6486
0436 1417418212 178.4945
0437 1417422607 179.5614
0438 1417427001 182.0758
0439 1417431396 183.7197
0440 1417435791 181.7321
0441 1417440185 181.9128
0442 1417444580 185.0105
0443 1417448974 179.8160
0444 1417453369 179.6326
0445 1417457763 180.5289
0446 1417462158 180.5331
0447 1417466552 179.5983
0448 1417470947 179.0865
0449 1417475341 179.5536
0450 1417479736 179.4385
0451 1417484130 177.6059
0452 1417488525 180.4911
0453 1417492919 178.3533
0454 1417497314 179.1642
0455 1417501708 185.3194
0456 1417506103 189.7589
0457 1417510498 181.6490
0458 1417514892 179.6864
0459 1417519287 180.0975
0460 1417523681 181.3355
0461 1417528076 179.0157
0462 1417532470 179.9983
0463 1417536865 177.7861
0464 1417541259 179.2161
0465 1417545654 178.8945
0466 1417550048 179.3574
0467 1417554443 180.6080
0468 1417558837 180.9052
0469 1417563232 181.3760
0470 1417567626 181.8688
0471 1417572021 179.6705
0472 1417576416 182.3171
0473 1417580810 181.1485
0474 1417585205 178.1051
0475 1417589599 178.3776
0476 1417593994 179.0458
0477 1417598388 179.4162
0478 1417602783 179.2892
0479 1417607177 182.2448
0480 1417611572 183.5257
0481 1417615966 180.1702
0482 1417620361 179.8975
0483 1417624755 181.9297
0484 1417629150 184.8802
0485 1417633544 181.8504
0486 1417637939 180.7971
0487 1417642333 183.2339
0488 1417646728 183.8670
0489 1417651123 186.2773
0490 1417655517 179.5854
0491 1417659912 178.6692
0492 1417664306 178.7941
0493 1417668701 180.7161
0494 1417673095 179.9807
0495 1417677490 178.6209
0496 1417681884 178.8845
0497 1417686279 184.1669
0498 1417690673 183.1240
0499 1417695068 179.5785
0500 1417699462 179.1151
0501 1417703857 180.3293
0502 1417708251 180.5329
0503 1417712646 181.3622
0504 1417717041 185.8746
0505 1417721435 184.6308
0506 1417725830 180.6712
0507 1417730224 184.0580
0508 1417734619 182.2810
0509 1417739013 187.4287
0510 1417743408 183.6247
0511 1417747802 186.7034
0512 1417752197 183.9907
0513 1417756591 181.6813
0514 1417760986 183.6111
0515 1417765380 179.9788
0516 1417769775 181.0104
0517 1417774169 184.6595
0518 1417778564 181.9597
0519 1417782958 181.5143
0520 1417787353 181.0366
0521 1417791748 183.8628
0522 1417796142 187.2086
0523 1417800537 183.1292
0524 1417804931 184.7286
0525 1417809326 187.4028
0526 1417813720 183.4002
0527 1417818115 183.0306
0528 1417822509 183.2219
0529 1417826904 182.1013
0530 1417831298 182.3973
0531 1417835693 181.7629
0532 1417840087 186.9487
0533 1417844482 182.4661
0534 1417848876 186.0958
0535 1417853271 184.8443
0536 1417857666 186.0601
0537 1417862060 187.1717
0538 1417866455 188.2270
0539 1417870849 192.8495
0540 1417875244 187.7432
0541 1417879638 187.5735
0542 1417884033 190.9961
0543 1417888427 187.5915
0544 1417892822 185.8604
0545 1417897216 185.6431
0546 1417901611 192.0610
0547 1417906005 186.9809
0548 1417910400 183.4503
0549 1417914794 186.4918
0550 1417919189 185.9611
0551 1417923583 184.5627
0552 1417927978 186.0869
0553 1417932373 190.1700
0554 1417936767 192.5525
0555 1417941162 188.6931
0556 1417945556 185.4328
0557 1417949951 185.2126
0558 1417954345 184.2984
0559 1417958740 190.4705
0560 1417963134 191.2070
0561 1417967529 186.4285
0562 1417971923 186.5000
0563 1417976318 187.9326
0564 1417980712 186.9757
0565 1417985107 187.2786
0566 1417989501 188.0398
0567 1417993896 193.6922
0568 1417998291 185.9025
0569 1418002685 187.4378
0570 1418007080 187.7227
0571 1418011474 187.3333
0572 1418015869 184.7083
0573 1418020263 192.4070
0574 1418024658 192.8231
0575 1418029052 184.7631
0576 1418033447 185.7593
0577 1418037841 189.5570
0578 1418042236 184.9675
0579 1418046630 185.5847
0580 1418051025 189.1553
0581 1418055419 190.0099
0582 1418059814 186.4754
0583 1418064208 186.3834
0584 1418068603 192.8510
0585 1418072998 187.5569
0586 1418077392 184.2243
0587 1418081787 187.6634
0588 1418086181 185.0529
0589 1418090576 183.3829
0590 1418094970 183.4871
0591 1418099365 184.7604
0592 1418103759 182.3385
0593 1418108154 183.5004
0594 1418112548 184.3282
0595 1418116943 184.7995
0596 1418121337 182.0777
0597 1418125732 185.6877
0598 1418130126 185.0271
0599 1418134521 185.4983
0600 1418138916 183.3309
0601 1418143310 183.7644
0602 1418147705 182.9057
0603 1418152099 182.6070
0604 1418156494 185.5167
0605 1418160888 184.2675
0606 1418165283 181.6756
0607 1418169677 182.6401
0608 1418174072 184.7101
0609 1418178466 184.2356
0610 1418182861 180.7342
0611 1418187255 182.5669
0612 1418191650 184.4611
0613 1418196044 181.0002
0614 1418200439 183.4513
0615 1418204833 183.6025
0616 1418209228 182.4139
0617 1418213623 183.0380
0618 1418218017 183.3734
0619 1418222412 185.9124
0620 1418226806 193.2709
0621 1418231201 183.5602
0622 1418235595 187.8724
0623 1418239990 190.1924
0624 1418244384 183.5568
0625 1418248779 182.1679
0626 1418253173 185.9228
0627 1418257568 185.2864
0628 1418261962 183.3421
0629 1418266357 184.3666
0630 1418270751 183.8262
0631 1418275146 181.9244
0632 1418279541 185.3279
0633 1418283935 186.6446
0634 1418288330 184.5368
0635 1418292724 184.0879
0636 1418297119 193.3418
0637 1418301513 189.1160
0638 1418305908 182.2078
0639 1418310302 183.1782
0640 1418314697 183.7888
0641 1418319091 184.3679
0642 1418323486 187.1039
0643 1418327880 184.1311
0644 1418332275 184.9834
0645 1418336669 183.1943
0646 1418341064 184.5128
0647 1418345458 185.0805
0648 1418349853 184.1568
0649 1418354248 185.3737
0650 1418358642 188.7562
0651 1418363037 188.4330
0652 1418367431 186.7982
0653 1418371826 189.0785
0654 1418376220 185.6954
0655 1418380615 186.6037
0656 1418385009 192.4862
0657 1418389404 194.1350
0658 1418393798 184.9436
0659 1418398193 183.6505
0660 1418402587 184.6960
0661 1418406982 188.8929
0662 1418411376 184.9476
0663 1418415771 185.4834
0664 1418420166 194.4984
0665 1418424560 192.0000
0666 1418428955 185.8683
0667 1418433349 185.4576
0668 1418437744 184.8467
0669 1418442138 187.5593
0670 1418446533 184.8719
0671 1418450927 184.2500
0672 1418455322 183.4938
0673 1418459716 185.1338
0674 1418464111 185.5498
0675 1418468505 186.5795
0676 1418472900 185.0103
0677 1418477294 190.1236
0678 1418481689 193.5562
0679 1418486083 187.6635
0680 1418490478 187.0871
0681 1418494873 188.3607
0682 1418499267 186.2543
0683 1418503662 186.0460
0684 1418508056 186.3375
0685 1418512451 191.3026
0686 1418516845 190.6421
0687 1418521240 185.9710
0688 1418525634 187.2771
0689 1418530029 187.7442
0690 1418534423 186.4950
0691 1418538818 187.2066
0692 1418543212 190.5351
0693 1418547607 185.1948
0694 1418552001 185.6910
0695 1418556396 186.1430
0696 1418560791 183.7034
0697 1418565185 186.0390
0698 1418569580 191.3418
0699 1418573974 196.1741
0700 1418578369 184.0697
0701 1418582763 185.2020
0702 1418587158 197.5110
0703 1418591552 188.2458
0704 1418595947 188.4686
0705 1418600341 191.1378
0706 1418604736 194.2589
0707 1418609130 186.6006
0708 1418613525 184.9176
0709 1418617919 193.3792
0710 1418622314 187.7910
0711 1418626708 183.1082
0712 1418631103 181.4962
0713 1418635498 184.3351
0714 1418639892 186.8092
0715 1418644287 186.1674
0716 1418648681 183.9792
0717 1418653076 185.2606
0718 1418657470 184.8604
0719 1418661865 189.8701
0720 1418666259 188.6878
0721 1418670654 182.9710
0722 1418675048 186.6209
0723 1418679443 184.8228
0724 1418683837 180.6655
0725 1418688232 180.0125
0726 1418692626 183.6515
0727 1418697021 183.4469
0728 1418701416 182.2362
0729 1418705810 184.9548
0730 1418710205 184.2568
0731 1418714599 188.8953
0732 1418718994 186.3360
0733 1418723388 190.9540
0734 1418727783 188.7224
0735 1418732177 186.3263
0736 1418736572 185.8734
0737 1418740966 186.2281
0738 1418745361 183.5206
0739 1418749755 182.7199
0740 1418754150 183.5501
0741 1418758544 185.6130
0742 1418762939 185.6880
0743 1418767333 185.5432
0744 1418771728 184.5817
0745 1418776123 184.1748
0746 1418780517 182.7119
0747 1418784912 188.9096
0748 1418789306 186.6607
0749 1418793701 185.8409
0750 1418798095 185.9984
0751 1418802490 188.5980
0752 1418806884 186.1959
0753 1418811279 185.9179
0754 1418815673 183.9716
0755 1418820068 185.5369
0756 1418824462 185.7048
0757 1418828857 188.6135
